#  E (eV)   dos(E)     Int dos(E)
-50.000  0.2640E-83  0.5280E-85
-49.980  0.2640E-83  0.1056E-84
-49.960  0.2640E-83  0.1584E-84
-49.940  0.2640E-83  0.2112E-84
-49.920  0.2640E-83  0.2640E-84
-49.900  0.2640E-83  0.3168E-84
-49.880  0.2640E-83  0.3696E-84
-49.860  0.2640E-83  0.4224E-84
-49.840  0.2640E-83  0.4752E-84
-49.820  0.2640E-83  0.5280E-84
-49.800  0.2640E-83  0.5807E-84
-49.780  0.2640E-83  0.6335E-84
-49.760  0.2640E-83  0.6863E-84
-49.740  0.2640E-83  0.7391E-84
-49.720  0.2640E-83  0.7919E-84
-49.700  0.2640E-83  0.8447E-84
-49.680  0.2640E-83  0.8975E-84
-49.660  0.2640E-83  0.9503E-84
-49.640  0.2640E-83  0.1003E-83
-49.620  0.2640E-83  0.1056E-83
-49.600  0.2640E-83  0.1109E-83
-49.580  0.2640E-83  0.1161E-83
-49.560  0.2640E-83  0.1214E-83
-49.540  0.2640E-83  0.1267E-83
-49.520  0.2640E-83  0.1320E-83
-49.500  0.2640E-83  0.1373E-83
-49.480  0.2640E-83  0.1425E-83
-49.460  0.2640E-83  0.1478E-83
-49.440  0.2640E-83  0.1531E-83
-49.420  0.2640E-83  0.1584E-83
-49.400  0.2640E-83  0.1637E-83
-49.380  0.2640E-83  0.1689E-83
-49.360  0.2640E-83  0.1742E-83
-49.340  0.2640E-83  0.1795E-83
-49.320  0.2640E-83  0.1848E-83
-49.300  0.2640E-83  0.1901E-83
-49.280  0.2640E-83  0.1953E-83
-49.260  0.2640E-83  0.2006E-83
-49.240  0.2640E-83  0.2059E-83
-49.220  0.2640E-83  0.2112E-83
-49.200  0.2640E-83  0.2165E-83
-49.180  0.2640E-83  0.2217E-83
-49.160  0.2640E-83  0.2270E-83
-49.140  0.2640E-83  0.2323E-83
-49.120  0.2640E-83  0.2376E-83
-49.100  0.2640E-83  0.2429E-83
-49.080  0.2640E-83  0.2481E-83
-49.060  0.2640E-83  0.2534E-83
-49.040  0.2640E-83  0.2587E-83
-49.020  0.2640E-83  0.2640E-83
-49.000  0.2640E-83  0.2693E-83
-48.980  0.2640E-83  0.2745E-83
-48.960  0.2640E-83  0.2798E-83
-48.940  0.2640E-83  0.2851E-83
-48.920  0.2640E-83  0.2904E-83
-48.900  0.2640E-83  0.2957E-83
-48.880  0.2640E-83  0.3009E-83
-48.860  0.2640E-83  0.3062E-83
-48.840  0.2640E-83  0.3115E-83
-48.820  0.2640E-83  0.3168E-83
-48.800  0.2640E-83  0.3221E-83
-48.780  0.2640E-83  0.3273E-83
-48.760  0.2640E-83  0.3326E-83
-48.740  0.2640E-83  0.3379E-83
-48.720  0.2640E-83  0.3432E-83
-48.700  0.2640E-83  0.3484E-83
-48.680  0.2640E-83  0.3537E-83
-48.660  0.2640E-83  0.3590E-83
-48.640  0.2640E-83  0.3643E-83
-48.620  0.2640E-83  0.3696E-83
-48.600  0.2640E-83  0.3748E-83
-48.580  0.2640E-83  0.3801E-83
-48.560  0.2640E-83  0.3854E-83
-48.540  0.2640E-83  0.3907E-83
-48.520  0.2640E-83  0.3960E-83
-48.500  0.2640E-83  0.4012E-83
-48.480  0.2640E-83  0.4065E-83
-48.460  0.2640E-83  0.4118E-83
-48.440  0.2640E-83  0.4171E-83
-48.420  0.2640E-83  0.4224E-83
-48.400  0.2640E-83  0.4276E-83
-48.380  0.2640E-83  0.4329E-83
-48.360  0.2640E-83  0.4382E-83
-48.340  0.2640E-83  0.4435E-83
-48.320  0.2640E-83  0.4488E-83
-48.300  0.2640E-83  0.4540E-83
-48.280  0.2640E-83  0.4593E-83
-48.260  0.2640E-83  0.4646E-83
-48.240  0.2640E-83  0.4699E-83
-48.220  0.2640E-83  0.4752E-83
-48.200  0.2640E-83  0.4804E-83
-48.180  0.2640E-83  0.4857E-83
-48.160  0.2640E-83  0.4910E-83
-48.140  0.2640E-83  0.4963E-83
-48.120  0.2640E-83  0.5016E-83
-48.100  0.2640E-83  0.5068E-83
-48.080  0.2640E-83  0.5121E-83
-48.060  0.2640E-83  0.5174E-83
-48.040  0.2640E-83  0.5227E-83
-48.020  0.2640E-83  0.5280E-83
-48.000  0.2640E-83  0.5332E-83
-47.980  0.2640E-83  0.5385E-83
-47.960  0.2640E-83  0.5438E-83
-47.940  0.2640E-83  0.5491E-83
-47.920  0.2640E-83  0.5544E-83
-47.900  0.2640E-83  0.5596E-83
-47.880  0.2640E-83  0.5649E-83
-47.860  0.2640E-83  0.5702E-83
-47.840  0.2640E-83  0.5755E-83
-47.820  0.2640E-83  0.5807E-83
-47.800  0.2640E-83  0.5860E-83
-47.780  0.2640E-83  0.5913E-83
-47.760  0.2640E-83  0.5966E-83
-47.740  0.2640E-83  0.6019E-83
-47.720  0.2640E-83  0.6071E-83
-47.700  0.2640E-83  0.6124E-83
-47.680  0.2640E-83  0.6177E-83
-47.660  0.2640E-83  0.6230E-83
-47.640  0.2640E-83  0.6283E-83
-47.620  0.2640E-83  0.6335E-83
-47.600  0.2640E-83  0.6388E-83
-47.580  0.2640E-83  0.6441E-83
-47.560  0.2640E-83  0.6494E-83
-47.540  0.2640E-83  0.6547E-83
-47.520  0.2640E-83  0.6599E-83
-47.500  0.2640E-83  0.6652E-83
-47.480  0.2640E-83  0.6705E-83
-47.460  0.2640E-83  0.6758E-83
-47.440  0.2640E-83  0.6811E-83
-47.420  0.2640E-83  0.6863E-83
-47.400  0.2640E-83  0.6916E-83
-47.380  0.2640E-83  0.6969E-83
-47.360  0.2640E-83  0.7022E-83
-47.340  0.2640E-83  0.7075E-83
-47.320  0.2640E-83  0.7127E-83
-47.300  0.2640E-83  0.7180E-83
-47.280  0.2640E-83  0.7233E-83
-47.260  0.2640E-83  0.7286E-83
-47.240  0.2640E-83  0.7339E-83
-47.220  0.2640E-83  0.7391E-83
-47.200  0.2640E-83  0.7444E-83
-47.180  0.2640E-83  0.7497E-83
-47.160  0.2640E-83  0.7550E-83
-47.140  0.2640E-83  0.7603E-83
-47.120  0.2640E-83  0.7655E-83
-47.100  0.2640E-83  0.7708E-83
-47.080  0.2640E-83  0.7761E-83
-47.060  0.2640E-83  0.7814E-83
-47.040  0.2640E-83  0.7867E-83
-47.020  0.2640E-83  0.7919E-83
-47.000  0.2640E-83  0.7972E-83
-46.980  0.2640E-83  0.8025E-83
-46.960  0.2640E-83  0.8078E-83
-46.940  0.2640E-83  0.8130E-83
-46.920  0.2640E-83  0.8183E-83
-46.900  0.2640E-83  0.8236E-83
-46.880  0.2640E-83  0.8289E-83
-46.860  0.2640E-83  0.8342E-83
-46.840  0.2640E-83  0.8394E-83
-46.820  0.2640E-83  0.8447E-83
-46.800  0.2640E-83  0.8500E-83
-46.780  0.2640E-83  0.8553E-83
-46.760  0.2640E-83  0.8606E-83
-46.740  0.2640E-83  0.8658E-83
-46.720  0.2640E-83  0.8711E-83
-46.700  0.2640E-83  0.8764E-83
-46.680  0.2640E-83  0.8817E-83
-46.660  0.2640E-83  0.8870E-83
-46.640  0.2640E-83  0.8922E-83
-46.620  0.2640E-83  0.8975E-83
-46.600  0.2640E-83  0.9028E-83
-46.580  0.2640E-83  0.9081E-83
-46.560  0.2640E-83  0.9134E-83
-46.540  0.2640E-83  0.9186E-83
-46.520  0.2640E-83  0.9239E-83
-46.500  0.2640E-83  0.9292E-83
-46.480  0.2640E-83  0.9345E-83
-46.460  0.2640E-83  0.9398E-83
-46.440  0.2640E-83  0.9450E-83
-46.420  0.2640E-83  0.9503E-83
-46.400  0.2640E-83  0.9556E-83
-46.380  0.2640E-83  0.9609E-83
-46.360  0.2640E-83  0.9662E-83
-46.340  0.2640E-83  0.9714E-83
-46.320  0.2640E-83  0.9767E-83
-46.300  0.2640E-83  0.9820E-83
-46.280  0.2640E-83  0.9873E-83
-46.260  0.2640E-83  0.9926E-83
-46.240  0.2640E-83  0.9978E-83
-46.220  0.2640E-83  0.1003E-82
-46.200  0.2640E-83  0.1008E-82
-46.180  0.2640E-83  0.1014E-82
-46.160  0.2640E-83  0.1019E-82
-46.140  0.2640E-83  0.1024E-82
-46.120  0.2640E-83  0.1030E-82
-46.100  0.2640E-83  0.1035E-82
-46.080  0.2640E-83  0.1040E-82
-46.060  0.2640E-83  0.1045E-82
-46.040  0.2640E-83  0.1051E-82
-46.020  0.2640E-83  0.1056E-82
-46.000  0.2640E-83  0.1061E-82
-45.980  0.2640E-83  0.1066E-82
-45.960  0.2640E-83  0.1072E-82
-45.940  0.2640E-83  0.1077E-82
-45.920  0.2640E-83  0.1082E-82
-45.900  0.2640E-83  0.1088E-82
-45.880  0.2640E-83  0.1093E-82
-45.860  0.2640E-83  0.1098E-82
-45.840  0.2640E-83  0.1103E-82
-45.820  0.2640E-83  0.1109E-82
-45.800  0.2640E-83  0.1114E-82
-45.780  0.2640E-83  0.1119E-82
-45.760  0.2640E-83  0.1125E-82
-45.740  0.2640E-83  0.1130E-82
-45.720  0.2640E-83  0.1135E-82
-45.700  0.2640E-83  0.1140E-82
-45.680  0.2640E-83  0.1146E-82
-45.660  0.2640E-83  0.1151E-82
-45.640  0.2640E-83  0.1156E-82
-45.620  0.2640E-83  0.1161E-82
-45.600  0.2640E-83  0.1167E-82
-45.580  0.2640E-83  0.1172E-82
-45.560  0.2640E-83  0.1177E-82
-45.540  0.2640E-83  0.1183E-82
-45.520  0.2640E-83  0.1188E-82
-45.500  0.2640E-83  0.1193E-82
-45.480  0.2640E-83  0.1198E-82
-45.460  0.2640E-83  0.1204E-82
-45.440  0.2640E-83  0.1209E-82
-45.420  0.2640E-83  0.1214E-82
-45.400  0.2640E-83  0.1220E-82
-45.380  0.2640E-83  0.1225E-82
-45.360  0.2640E-83  0.1230E-82
-45.340  0.2640E-83  0.1235E-82
-45.320  0.2640E-83  0.1241E-82
-45.300  0.2640E-83  0.1246E-82
-45.280  0.2640E-83  0.1251E-82
-45.260  0.2640E-83  0.1257E-82
-45.240  0.2640E-83  0.1262E-82
-45.220  0.2640E-83  0.1267E-82
-45.200  0.2640E-83  0.1272E-82
-45.180  0.2640E-83  0.1278E-82
-45.160  0.2640E-83  0.1283E-82
-45.140  0.2640E-83  0.1288E-82
-45.120  0.2640E-83  0.1293E-82
-45.100  0.2640E-83  0.1299E-82
-45.080  0.2640E-83  0.1304E-82
-45.060  0.2640E-83  0.1309E-82
-45.040  0.2640E-83  0.1315E-82
-45.020  0.2640E-83  0.1320E-82
-45.000  0.2640E-83  0.1325E-82
-44.980  0.2640E-83  0.1330E-82
-44.960  0.2640E-83  0.1336E-82
-44.940  0.2640E-83  0.1341E-82
-44.920  0.2640E-83  0.1346E-82
-44.900  0.2640E-83  0.1352E-82
-44.880  0.2640E-83  0.1357E-82
-44.860  0.2640E-83  0.1362E-82
-44.840  0.2640E-83  0.1367E-82
-44.820  0.2640E-83  0.1373E-82
-44.800  0.2640E-83  0.1378E-82
-44.780  0.2640E-83  0.1383E-82
-44.760  0.2640E-83  0.1389E-82
-44.740  0.2640E-83  0.1394E-82
-44.720  0.2640E-83  0.1399E-82
-44.700  0.2640E-83  0.1404E-82
-44.680  0.2640E-83  0.1410E-82
-44.660  0.2640E-83  0.1415E-82
-44.640  0.2640E-83  0.1420E-82
-44.620  0.2640E-83  0.1425E-82
-44.600  0.2640E-83  0.1431E-82
-44.580  0.2640E-83  0.1436E-82
-44.560  0.2640E-83  0.1441E-82
-44.540  0.2640E-83  0.1447E-82
-44.520  0.2640E-83  0.1452E-82
-44.500  0.2640E-83  0.1457E-82
-44.480  0.2640E-83  0.1462E-82
-44.460  0.2640E-83  0.1468E-82
-44.440  0.2640E-83  0.1473E-82
-44.420  0.2640E-83  0.1478E-82
-44.400  0.2640E-83  0.1484E-82
-44.380  0.2640E-83  0.1489E-82
-44.360  0.2640E-83  0.1494E-82
-44.340  0.2640E-83  0.1499E-82
-44.320  0.2640E-83  0.1505E-82
-44.300  0.2640E-83  0.1510E-82
-44.280  0.2640E-83  0.1515E-82
-44.260  0.2640E-83  0.1521E-82
-44.240  0.2640E-83  0.1526E-82
-44.220  0.2640E-83  0.1531E-82
-44.200  0.2640E-83  0.1536E-82
-44.180  0.2640E-83  0.1542E-82
-44.160  0.2640E-83  0.1547E-82
-44.140  0.2640E-83  0.1552E-82
-44.120  0.2640E-83  0.1557E-82
-44.100  0.2640E-83  0.1563E-82
-44.080  0.2640E-83  0.1568E-82
-44.060  0.2640E-83  0.1573E-82
-44.040  0.2640E-83  0.1579E-82
-44.020  0.2640E-83  0.1584E-82
-44.000  0.2640E-83  0.1589E-82
-43.980  0.2640E-83  0.1594E-82
-43.960  0.2640E-83  0.1600E-82
-43.940  0.2640E-83  0.1605E-82
-43.920  0.2640E-83  0.1610E-82
-43.900  0.2640E-83  0.1616E-82
-43.880  0.2640E-83  0.1621E-82
-43.860  0.2640E-83  0.1626E-82
-43.840  0.2640E-83  0.1631E-82
-43.820  0.2640E-83  0.1637E-82
-43.800  0.2640E-83  0.1642E-82
-43.780  0.2640E-83  0.1647E-82
-43.760  0.2640E-83  0.1652E-82
-43.740  0.2640E-83  0.1658E-82
-43.720  0.2640E-83  0.1663E-82
-43.700  0.2640E-83  0.1668E-82
-43.680  0.2640E-83  0.1674E-82
-43.660  0.2640E-83  0.1679E-82
-43.640  0.2640E-83  0.1684E-82
-43.620  0.2640E-83  0.1689E-82
-43.600  0.2640E-83  0.1695E-82
-43.580  0.2640E-83  0.1700E-82
-43.560  0.2640E-83  0.1705E-82
-43.540  0.2640E-83  0.1711E-82
-43.520  0.2640E-83  0.1716E-82
-43.500  0.2640E-83  0.1721E-82
-43.480  0.2640E-83  0.1726E-82
-43.460  0.2640E-83  0.1732E-82
-43.440  0.2640E-83  0.1737E-82
-43.420  0.2640E-83  0.1742E-82
-43.400  0.2640E-83  0.1748E-82
-43.380  0.2640E-83  0.1753E-82
-43.360  0.2640E-83  0.1758E-82
-43.340  0.2640E-83  0.1763E-82
-43.320  0.2640E-83  0.1769E-82
-43.300  0.2640E-83  0.1774E-82
-43.280  0.2640E-83  0.1779E-82
-43.260  0.2640E-83  0.1784E-82
-43.240  0.2640E-83  0.1790E-82
-43.220  0.2640E-83  0.1795E-82
-43.200  0.2640E-83  0.1800E-82
-43.180  0.2640E-83  0.1806E-82
-43.160  0.2640E-83  0.1811E-82
-43.140  0.2640E-83  0.1816E-82
-43.120  0.2640E-83  0.1821E-82
-43.100  0.2640E-83  0.1827E-82
-43.080  0.2640E-83  0.1832E-82
-43.060  0.2640E-83  0.1837E-82
-43.040  0.2640E-83  0.1843E-82
-43.020  0.2640E-83  0.1848E-82
-43.000  0.2640E-83  0.1853E-82
-42.980  0.2640E-83  0.1858E-82
-42.960  0.2640E-83  0.1864E-82
-42.940  0.2640E-83  0.1869E-82
-42.920  0.2640E-83  0.1874E-82
-42.900  0.2640E-83  0.1880E-82
-42.880  0.2640E-83  0.1885E-82
-42.860  0.2640E-83  0.1890E-82
-42.840  0.2640E-83  0.1895E-82
-42.820  0.2640E-83  0.1901E-82
-42.800  0.2640E-83  0.1906E-82
-42.780  0.2640E-83  0.1911E-82
-42.760  0.2640E-83  0.1916E-82
-42.740  0.2640E-83  0.1922E-82
-42.720  0.2640E-83  0.1927E-82
-42.700  0.2640E-83  0.1932E-82
-42.680  0.2640E-83  0.1938E-82
-42.660  0.2640E-83  0.1943E-82
-42.640  0.2640E-83  0.1948E-82
-42.620  0.2640E-83  0.1953E-82
-42.600  0.2640E-83  0.1959E-82
-42.580  0.2640E-83  0.1964E-82
-42.560  0.2640E-83  0.1969E-82
-42.540  0.2640E-83  0.1975E-82
-42.520  0.2640E-83  0.1980E-82
-42.500  0.2640E-83  0.1985E-82
-42.480  0.2640E-83  0.1990E-82
-42.460  0.2640E-83  0.1996E-82
-42.440  0.2640E-83  0.2001E-82
-42.420  0.2640E-83  0.2006E-82
-42.400  0.2640E-83  0.2012E-82
-42.380  0.2640E-83  0.2017E-82
-42.360  0.2640E-83  0.2022E-82
-42.340  0.2640E-83  0.2027E-82
-42.320  0.2640E-83  0.2033E-82
-42.300  0.2640E-83  0.2038E-82
-42.280  0.2640E-83  0.2043E-82
-42.260  0.2640E-83  0.2048E-82
-42.240  0.2640E-83  0.2054E-82
-42.220  0.2640E-83  0.2059E-82
-42.200  0.2640E-83  0.2064E-82
-42.180  0.2640E-83  0.2070E-82
-42.160  0.2640E-83  0.2075E-82
-42.140  0.2640E-83  0.2080E-82
-42.120  0.2640E-83  0.2085E-82
-42.100  0.2640E-83  0.2091E-82
-42.080  0.2640E-83  0.2096E-82
-42.060  0.2640E-83  0.2101E-82
-42.040  0.2640E-83  0.2107E-82
-42.020  0.2640E-83  0.2112E-82
-42.000  0.2640E-83  0.2117E-82
-41.980  0.2640E-83  0.2122E-82
-41.960  0.2640E-83  0.2128E-82
-41.940  0.2640E-83  0.2133E-82
-41.920  0.2640E-83  0.2138E-82
-41.900  0.2640E-83  0.2143E-82
-41.880  0.2640E-83  0.2149E-82
-41.860  0.2640E-83  0.2154E-82
-41.840  0.2640E-83  0.2159E-82
-41.820  0.2640E-83  0.2165E-82
-41.800  0.2640E-83  0.2170E-82
-41.780  0.2640E-83  0.2175E-82
-41.760  0.2640E-83  0.2180E-82
-41.740  0.2640E-83  0.2186E-82
-41.720  0.2640E-83  0.2191E-82
-41.700  0.2640E-83  0.2196E-82
-41.680  0.2640E-83  0.2202E-82
-41.660  0.2640E-83  0.2207E-82
-41.640  0.2640E-83  0.2212E-82
-41.620  0.2640E-83  0.2217E-82
-41.600  0.2640E-83  0.2223E-82
-41.580  0.2640E-83  0.2228E-82
-41.560  0.2640E-83  0.2233E-82
-41.540  0.2640E-83  0.2239E-82
-41.520  0.2640E-83  0.2244E-82
-41.500  0.2640E-83  0.2249E-82
-41.480  0.2640E-83  0.2254E-82
-41.460  0.2640E-83  0.2260E-82
-41.440  0.2640E-83  0.2265E-82
-41.420  0.2640E-83  0.2270E-82
-41.400  0.2640E-83  0.2275E-82
-41.380  0.2640E-83  0.2281E-82
-41.360  0.2640E-83  0.2286E-82
-41.340  0.2640E-83  0.2291E-82
-41.320  0.2640E-83  0.2297E-82
-41.300  0.2640E-83  0.2302E-82
-41.280  0.2640E-83  0.2307E-82
-41.260  0.2640E-83  0.2312E-82
-41.240  0.2640E-83  0.2318E-82
-41.220  0.2640E-83  0.2323E-82
-41.200  0.2640E-83  0.2328E-82
-41.180  0.2640E-83  0.2334E-82
-41.160  0.2640E-83  0.2339E-82
-41.140  0.2640E-83  0.2344E-82
-41.120  0.2640E-83  0.2349E-82
-41.100  0.2640E-83  0.2355E-82
-41.080  0.2640E-83  0.2360E-82
-41.060  0.2640E-83  0.2365E-82
-41.040  0.2640E-83  0.2371E-82
-41.020  0.2640E-83  0.2376E-82
-41.000  0.2640E-83  0.2381E-82
-40.980  0.2640E-83  0.2386E-82
-40.960  0.2640E-83  0.2392E-82
-40.940  0.2640E-83  0.2397E-82
-40.920  0.2640E-83  0.2402E-82
-40.900  0.2640E-83  0.2407E-82
-40.880  0.2640E-83  0.2413E-82
-40.860  0.2640E-83  0.2418E-82
-40.840  0.2640E-83  0.2423E-82
-40.820  0.2640E-83  0.2429E-82
-40.800  0.2640E-83  0.2434E-82
-40.780  0.2640E-83  0.2439E-82
-40.760  0.2640E-83  0.2444E-82
-40.740  0.2640E-83  0.2450E-82
-40.720  0.2640E-83  0.2455E-82
-40.700  0.2640E-83  0.2460E-82
-40.680  0.2640E-83  0.2466E-82
-40.660  0.2640E-83  0.2471E-82
-40.640  0.2640E-83  0.2476E-82
-40.620  0.2640E-83  0.2481E-82
-40.600  0.2640E-83  0.2487E-82
-40.580  0.2640E-83  0.2492E-82
-40.560  0.2640E-83  0.2497E-82
-40.540  0.2640E-83  0.2503E-82
-40.520  0.2640E-83  0.2508E-82
-40.500  0.2640E-83  0.2513E-82
-40.480  0.2640E-83  0.2518E-82
-40.460  0.2640E-83  0.2524E-82
-40.440  0.2640E-83  0.2529E-82
-40.420  0.2640E-83  0.2534E-82
-40.400  0.2640E-83  0.2539E-82
-40.380  0.2640E-83  0.2545E-82
-40.360  0.2640E-83  0.2550E-82
-40.340  0.2640E-83  0.2555E-82
-40.320  0.2640E-83  0.2561E-82
-40.300  0.2640E-83  0.2566E-82
-40.280  0.2640E-83  0.2571E-82
-40.260  0.2640E-83  0.2576E-82
-40.240  0.2640E-83  0.2582E-82
-40.220  0.2640E-83  0.2587E-82
-40.200  0.2640E-83  0.2592E-82
-40.180  0.2640E-83  0.2598E-82
-40.160  0.2640E-83  0.2603E-82
-40.140  0.2640E-83  0.2608E-82
-40.120  0.2640E-83  0.2613E-82
-40.100  0.2640E-83  0.2619E-82
-40.080  0.2640E-83  0.2624E-82
-40.060  0.2640E-83  0.2629E-82
-40.040  0.2640E-83  0.2634E-82
-40.020  0.2640E-83  0.2640E-82
-40.000  0.2640E-83  0.2645E-82
-39.980  0.2640E-83  0.2650E-82
-39.960  0.2640E-83  0.2656E-82
-39.940  0.2640E-83  0.2661E-82
-39.920  0.2640E-83  0.2666E-82
-39.900  0.2640E-83  0.2671E-82
-39.880  0.2640E-83  0.2677E-82
-39.860  0.2640E-83  0.2682E-82
-39.840  0.2640E-83  0.2687E-82
-39.820  0.2640E-83  0.2693E-82
-39.800  0.2640E-83  0.2698E-82
-39.780  0.2640E-83  0.2703E-82
-39.760  0.2640E-83  0.2708E-82
-39.740  0.2640E-83  0.2714E-82
-39.720  0.2640E-83  0.2719E-82
-39.700  0.2640E-83  0.2724E-82
-39.680  0.2640E-83  0.2730E-82
-39.660  0.2640E-83  0.2735E-82
-39.640  0.2640E-83  0.2740E-82
-39.620  0.2640E-83  0.2745E-82
-39.600  0.2640E-83  0.2751E-82
-39.580  0.2640E-83  0.2756E-82
-39.560  0.2640E-83  0.2761E-82
-39.540  0.2640E-83  0.2766E-82
-39.520  0.2640E-83  0.2772E-82
-39.500  0.2640E-83  0.2777E-82
-39.480  0.2640E-83  0.2782E-82
-39.460  0.2640E-83  0.2788E-82
-39.440  0.2640E-83  0.2793E-82
-39.420  0.2640E-83  0.2798E-82
-39.400  0.2640E-83  0.2803E-82
-39.380  0.2640E-83  0.2809E-82
-39.360  0.2640E-83  0.2814E-82
-39.340  0.2640E-83  0.2819E-82
-39.320  0.2640E-83  0.2825E-82
-39.300  0.2640E-83  0.2830E-82
-39.280  0.2640E-83  0.2835E-82
-39.260  0.2640E-83  0.2840E-82
-39.240  0.2640E-83  0.2846E-82
-39.220  0.2640E-83  0.2851E-82
-39.200  0.2640E-83  0.2856E-82
-39.180  0.2640E-83  0.2862E-82
-39.160  0.2640E-83  0.2867E-82
-39.140  0.2640E-83  0.2872E-82
-39.120  0.2640E-83  0.2877E-82
-39.100  0.2640E-83  0.2883E-82
-39.080  0.2640E-83  0.2888E-82
-39.060  0.2640E-83  0.2893E-82
-39.040  0.2640E-83  0.2898E-82
-39.020  0.2640E-83  0.2904E-82
-39.000  0.2640E-83  0.2909E-82
-38.980  0.2640E-83  0.2914E-82
-38.960  0.2640E-83  0.2920E-82
-38.940  0.2640E-83  0.2925E-82
-38.920  0.2640E-83  0.2930E-82
-38.900  0.2640E-83  0.2935E-82
-38.880  0.2640E-83  0.2941E-82
-38.860  0.2640E-83  0.2946E-82
-38.840  0.2640E-83  0.2951E-82
-38.820  0.2640E-83  0.2957E-82
-38.800  0.2640E-83  0.2962E-82
-38.780  0.2640E-83  0.2967E-82
-38.760  0.2640E-83  0.2972E-82
-38.740  0.2640E-83  0.2978E-82
-38.720  0.2640E-83  0.2983E-82
-38.700  0.2640E-83  0.2988E-82
-38.680  0.2640E-83  0.2993E-82
-38.660  0.2640E-83  0.2999E-82
-38.640  0.2640E-83  0.3004E-82
-38.620  0.2640E-83  0.3009E-82
-38.600  0.2640E-83  0.3015E-82
-38.580  0.2640E-83  0.3020E-82
-38.560  0.2640E-83  0.3025E-82
-38.540  0.2640E-83  0.3030E-82
-38.520  0.2640E-83  0.3036E-82
-38.500  0.2640E-83  0.3041E-82
-38.480  0.2640E-83  0.3046E-82
-38.460  0.2640E-83  0.3052E-82
-38.440  0.2640E-83  0.3057E-82
-38.420  0.2640E-83  0.3062E-82
-38.400  0.2640E-83  0.3067E-82
-38.380  0.2640E-83  0.3073E-82
-38.360  0.2640E-83  0.3078E-82
-38.340  0.2640E-83  0.3083E-82
-38.320  0.2640E-83  0.3089E-82
-38.300  0.2640E-83  0.3094E-82
-38.280  0.2640E-83  0.3099E-82
-38.260  0.2640E-83  0.3104E-82
-38.240  0.2640E-83  0.3110E-82
-38.220  0.2640E-83  0.3115E-82
-38.200  0.2640E-83  0.3120E-82
-38.180  0.2640E-83  0.3125E-82
-38.160  0.2640E-83  0.3131E-82
-38.140  0.2640E-83  0.3136E-82
-38.120  0.2640E-83  0.3141E-82
-38.100  0.2640E-83  0.3147E-82
-38.080  0.2640E-83  0.3152E-82
-38.060  0.2640E-83  0.3157E-82
-38.040  0.2640E-83  0.3162E-82
-38.020  0.2640E-83  0.3168E-82
-38.000  0.2640E-83  0.3173E-82
-37.980  0.2640E-83  0.3178E-82
-37.960  0.2640E-83  0.3184E-82
-37.940  0.2640E-83  0.3189E-82
-37.920  0.2640E-83  0.3194E-82
-37.900  0.2640E-83  0.3199E-82
-37.880  0.2640E-83  0.3205E-82
-37.860  0.2640E-83  0.3210E-82
-37.840  0.2640E-83  0.3215E-82
-37.820  0.2640E-83  0.3221E-82
-37.800  0.2640E-83  0.3226E-82
-37.780  0.2640E-83  0.3231E-82
-37.760  0.2640E-83  0.3236E-82
-37.740  0.2640E-83  0.3242E-82
-37.720  0.2640E-83  0.3247E-82
-37.700  0.2640E-83  0.3252E-82
-37.680  0.2640E-83  0.3257E-82
-37.660  0.2640E-83  0.3263E-82
-37.640  0.2640E-83  0.3268E-82
-37.620  0.2640E-83  0.3273E-82
-37.600  0.2640E-83  0.3279E-82
-37.580  0.2640E-83  0.3284E-82
-37.560  0.2640E-83  0.3289E-82
